Data from h2-2_HR4C25001_18-03-39-954.txt Node
Date: Thu Aug 31 18:03:39 CDT 2023
User: kk37594
Spectrometer: HR4C2500
Trigger mode: 4
Integration Time (sec): 2.500000E-1
Scans to average: 5
Electric dark correction enabled: true
Nonlinearity correction enabled: false
Boxcar width: 0
XAxis mode: Wavelengths
Number of Pixels in Spectrum: 3648
>>>>>Begin Spectral Data<<<<<
629.667	-140.62
629.685	-140.62
629.703	-140.62
629.722	-154.02
629.74	-108.02
629.758	2.98
629.776	11.58
629.795	33.98
629.813	13.38
629.831	-31.02
629.85	5.38
629.868	10.98
629.886	33.98
629.905	-45.62
629.923	-30.42
629.941	-8.22
629.96	5.58
629.978	-2.62
629.996	-3.42
630.014	59.58
630.033	37.78
630.051	20.38
630.069	9.98
630.088	42.98
630.106	8.58
630.124	-15.62
630.142	-13.42
630.161	-27.02
630.179	-13.02
630.197	-5.82
630.216	58.18
630.234	214.78
630.252	78.18
630.27	33.58
630.289	19.58
630.307	11.38
630.325	5.58
630.343	-3.82
630.362	25.18
630.38	64.78
630.398	14.58
630.416	-14.42
630.435	-13.42
630.453	10.38
630.471	31.98
630.489	4.78
630.507	16.18
630.526	16.38
630.544	7.98
630.562	4.58
630.58	5.38
630.599	13.38
630.617	9.38
630.635	-2.22
630.653	10.78
630.671	23.78
630.69	-0.22
630.708	4.98
630.726	19.18
630.744	4.98
630.762	-23.62
630.781	-23.62
630.799	7.78
630.817	30.98
630.835	39.38
630.853	-3.62
630.871	-4.42
630.89	18.18
630.908	-3.02
630.926	-42.22
630.944	17.78
630.962	74.98
630.98	104.18
630.999	16.18
631.017	6.38
631.035	1.58
631.053	-23.62
631.071	7.98
631.089	11.78
631.108	2.98
631.126	15.98
631.144	1.98
631.162	16.38
631.18	33.78
631.198	25.98
631.216	2.38
631.234	-21.62
631.253	2.98
631.271	13.18
631.289	7.78
631.307	10.38
631.325	21.98
631.343	32.98
631.361	4.78
631.379	22.58
631.398	16.38
631.416	7.98
631.434	-17.02
631.452	-7.02
631.47	-22.82
631.488	-15.62
631.506	-28.02
631.524	-22.62
631.542	11.98
631.56	9.58
631.578	3.38
631.597	-7.42
631.615	-42.42
631.633	-19.42
631.651	-7.82
631.669	-10.02
631.687	47.18
631.705	54.98
631.723	12.38
631.741	-3.82
631.759	4.58
631.777	-1.82
631.795	13.38
631.813	14.98
631.831	5.98
631.849	38.78
631.867	18.58
631.885	9.18
631.903	33.98
631.922	-20.22
631.94	-21.42
631.958	1.58
631.976	17.38
631.994	-8.22
632.012	-24.62
632.03	7.18
632.048	41.58
632.066	33.98
632.084	1.98
632.102	-3.22
632.12	-18.82
632.138	-12.02
632.156	18.58
632.174	-13.42
632.192	-20.82
632.21	-3.02
632.228	-29.02
632.246	-14.62
632.264	17.38
632.282	42.18
632.3	-10.82
632.318	-4.42
632.336	6.98
632.354	9.18
632.372	-0.42
632.39	4.98
632.408	10.78
632.426	-21.62
632.443	12.98
632.461	-2.02
632.479	5.18
632.497	3.98
632.515	-6.42
632.533	27.58
632.551	25.58
632.569	13.38
632.587	-16.02
632.605	-16.42
632.623	10.78
632.641	23.18
632.659	-37.42
632.677	-22.82
632.695	-4.02
632.713	-10.82
632.731	-3.42
632.748	4.58
632.766	18.98
632.784	34.38
632.802	15.18
632.82	33.58
632.838	10.78
632.856	-12.02
632.874	5.38
632.892	-10.02
632.91	-4.02
632.928	7.58
632.945	-5.42
632.963	15.18
632.981	23.58
632.999	2.38
633.017	-18.62
633.035	4.78
633.053	3.98
633.071	0.78
633.089	-28.82
633.106	5.98
633.124	44.38
633.142	-2.62
633.16	15.38
633.178	12.18
633.196	37.18
633.214	36.18
633.231	10.78
633.249	-21.42
633.267	0.78
633.285	12.78
633.303	-28.82
633.321	-19.82
633.339	23.38
633.356	49.18
633.374	19.78
633.392	0.38
633.41	-17.82
633.428	6.98
633.446	-6.42
633.463	-32.82
633.481	-15.22
633.499	-22.82
633.517	-5.62
633.535	-9.82
633.552	15.98
633.57	-7.02
633.588	-29.42
633.606	-32.02
633.624	6.58
633.641	12.38
633.659	-16.62
633.677	-31.22
633.695	-9.82
633.713	22.58
633.73	5.38
633.748	-18.42
633.766	-7.02
633.784	6.98
633.802	-13.22
633.819	-16.02
633.837	-15.82
633.855	-63.22
633.873	-65.82
633.89	-35.02
633.908	14.98
633.926	-0.42
633.944	-19.02
633.961	0.38
633.979	21.98
633.997	-45.02
634.015	-12.42
634.032	30.18
634.05	44.18
634.068	-14.42
634.086	9.38
634.103	10.18
634.121	-3.82
634.139	16.58
634.157	-7.82
634.174	-11.62
634.192	-7.42
634.21	-12.82
634.227	12.38
634.245	18.98
634.263	32.98
634.281	46.58
634.298	4.38
634.316	-0.22
634.334	-0.82
634.351	-23.02
634.369	-32.62
634.387	3.58
634.404	24.58
634.422	-8.82
634.44	-14.42
634.458	-25.82
634.475	29.38
634.493	61.78
634.511	-22.02
634.528	-3.42
634.546	3.18
634.564	-4.22
634.581	-44.42
634.599	-0.22
634.617	13.38
634.634	13.78
634.652	-22.22
634.67	-9.22
634.687	35.18
634.705	11.58
634.723	-6.62
634.74	21.98
634.758	2.58
634.775	-4.82
634.793	-17.02
634.811	30.98
634.828	22.18
634.846	-8.42
634.864	-12.42
634.881	22.18
634.899	6.38
634.917	0.78
634.934	-10.82
634.952	15.58
634.969	20.98
634.987	27.78
635.005	-9.82
635.022	14.18
635.04	25.78
635.057	1.98
635.075	-20.82
635.093	-0.22
635.11	26.58
635.128	17.78
635.145	-14.22
635.163	23.38
635.181	15.98
635.198	25.58
635.216	9.98
635.233	4.18
635.251	29.58
635.268	-2.42
635.286	-11.42
635.304	-9.02
635.321	-9.62
635.339	-30.22
635.356	-37.22
635.374	-20.22
635.391	-10.62
635.409	-12.02
635.426	4.58
635.444	1.58
635.462	-1.62
635.479	6.18
635.497	-7.02
635.514	2.98
635.532	7.18
635.549	2.38
635.567	-22.82
635.584	-1.62
635.602	65.58
635.619	57.78
635.637	-22.62
635.654	7.78
635.672	0.58
635.689	13.18
635.707	-9.42
635.724	-7.62
635.742	-14.02
635.759	-19.82
635.777	-23.22
635.795	-5.82
635.812	37.98
635.829	-3.42
635.847	-36.02
635.864	-5.22
635.882	11.18
635.899	20.58
635.917	-7.82
635.934	-9.22
635.952	4.78
635.969	-11.62
635.987	21.98
636.004	73.98
636.022	31.58
636.039	-11.42
636.057	2.18
636.074	-5.42
636.092	-2.02
636.109	-14.62
636.127	-8.02
636.144	-0.82
636.161	49.58
636.179	-5.02
636.196	-24.82
636.214	-22.22
636.231	1.78
636.249	-12.02
636.266	-11.22
636.283	10.18
636.301	23.18
636.318	8.78
636.336	-17.82
636.353	-6.82
636.371	18.98
636.388	-2.82
636.405	12.58
636.423	16.78
636.44	19.98
636.458	-14.82
636.475	-32.22
636.492	-40.02
636.51	-24.22
636.527	-5.62
636.545	-10.62
636.562	-10.62
636.579	-19.02
636.597	-29.42
636.614	-11.22
636.632	-2.82
636.649	51.98
636.666	35.38
636.684	-14.22
636.701	-30.02
636.718	-30.82
636.736	-19.82
636.753	-1.82
636.771	9.18
636.788	22.78
636.805	-1.82
636.823	-27.42
636.84	-24.22
636.857	-29.02
636.875	-31.22
636.892	-25.42
636.909	21.18
636.927	34.98
636.944	-11.42
636.961	-26.02
636.979	-15.62
636.996	5.38
637.013	4.98
637.031	-12.42
637.048	-30.62
637.065	4.38
637.083	7.18
637.1	-19.02
637.117	-33.42
637.135	18.38
637.152	23.18
637.169	-4.22
637.187	-11.62
637.204	25.38
637.221	8.38
637.238	-19.82
637.256	30.38
637.273	8.58
637.29	14.38
637.308	-23.22
637.325	-2.02
637.342	18.58
637.359	41.58
637.377	28.38
637.394	50.18
637.411	3.18
637.428	12.18
637.446	-26.62
637.463	1.18
637.48	74.78
637.498	22.78
637.515	-20.42
637.532	7.78
637.549	-8.22
637.567	-12.22
637.584	-13.82
637.601	-1.62
637.618	24.58
637.636	17.78
637.653	-8.62
637.67	-13.82
637.687	16.98
637.704	14.98
637.722	-7.42
637.739	5.38
637.756	38.78
637.773	25.58
637.791	-9.82
637.808	15.58
637.825	13.38
637.842	15.98
637.859	-6.62
637.877	-5.22
637.894	8.18
637.911	-2.62
637.928	-25.02
637.945	6.38
637.963	37.18
637.98	19.18
637.997	-1.42
638.014	-28.02
638.031	-9.22
638.049	8.78
638.066	-30.22
638.083	-15.02
638.1	0.38
638.117	-1.42
638.134	-16.42
638.152	-6.22
638.169	-31.42
638.186	-17.22
638.203	-26.62
638.22	-42.62
638.237	-35.02
638.255	-27.82
638.272	-25.22
638.289	-19.22
638.306	-18.82
638.323	5.58
638.34	4.38
638.357	8.18
638.374	39.98
638.392	-8.62
638.409	-27.62
638.426	-8.62
638.443	3.18
638.46	-8.42
638.477	-9.02
638.494	7.18
638.511	19.38
638.529	16.98
638.546	-32.02
638.563	-15.62
638.58	12.58
638.597	12.98
638.614	-12.42
638.631	-8.82
638.648	2.38
638.665	-5.42
638.682	-18.82
638.7	-1.62
638.717	34.58
638.734	4.38
638.751	-8.22
638.768	2.38
638.785	10.18
638.802	-15.02
638.819	-10.22
638.836	5.78
638.853	37.98
638.87	-5.22
638.887	-42.42
638.904	-11.42
638.921	33.18
638.939	39.18
638.956	12.58
638.973	-10.82
638.99	17.98
639.007	24.18
639.024	0.58
639.041	25.38
639.058	42.38
639.075	16.18
639.092	21.38
639.109	-36.42
639.126	-34.42
639.143	-14.82
639.16	-25.42
639.177	23.38
639.194	58.78
639.211	61.98
639.228	24.78
639.245	-5.42
639.262	6.78
639.279	-3.82
639.296	2.98
639.313	12.78
639.33	-3.22
639.347	17.18
639.364	-5.22
639.381	-3.02
639.398	30.98
639.415	27.38
639.432	2.58
639.449	-8.22
639.466	21.98
639.483	18.98
639.5	11.38
639.517	-0.42
639.534	-22.22
639.551	-34.62
639.568	-49.82
639.585	-25.82
639.602	8.58
639.619	1.18
639.636	7.78
639.653	19.98
639.669	-11.42
639.686	-7.02
639.703	7.38
639.72	13.38
639.737	8.58
639.754	21.98
639.771	20.98
639.788	41.98
639.805	70.78
639.822	16.78
639.839	-9.42
639.856	10.38
639.873	18.98
639.89	21.98
639.906	-32.42
639.923	-13.42
639.94	11.78
639.957	21.18
639.974	-7.22
639.991	11.38
640.008	20.58
640.025	6.78
640.042	-20.22
640.059	-18.82
640.075	-0.22
640.092	25.18
640.109	13.78
640.126	13.98
640.143	-14.62
640.16	-3.62
640.177	-8.62
640.194	-22.02
640.21	-6.42
640.227	15.38
640.244	7.18
640.261	26.18
640.278	46.58
640.295	12.78
640.312	-34.62
640.328	-27.62
640.345	15.38
640.362	1.58
640.379	-10.02
640.396	28.98
640.413	72.58
640.43	-8.02
640.446	-41.42
640.463	-9.62
640.48	-11.62
640.497	-24.42
640.514	-30.42
640.531	-11.42
640.547	12.38
640.564	-0.22
640.581	19.58
640.598	35.58
640.615	5.38
640.631	-5.42
640.648	-28.82
640.665	-14.82
640.682	27.78
640.699	-23.82
640.715	-19.82
640.732	-15.22
640.749	-9.82
640.766	23.38
640.783	14.58
640.799	6.58
640.816	27.58
640.833	9.18
640.85	-2.42
640.866	17.18
640.883	72.38
640.9	15.98
640.917	-5.02
640.933	-26.02
640.95	-20.82
640.967	-1.62
640.984	-21.02
641.001	-24.42
641.017	-21.62
641.034	-24.82
641.051	-19.22
641.068	-20.22
641.084	18.98
641.101	-1.62
641.118	7.98
641.134	-7.82
641.151	1.38
641.168	-4.62
641.185	-27.02
641.201	26.58
641.218	34.58
641.235	-4.62
641.252	-20.02
641.268	4.78
641.285	4.98
641.302	13.98
641.318	-30.82
641.335	-12.42
641.352	-5.22
641.368	19.58
641.385	12.18
641.402	7.58
641.419	13.98
641.435	8.58
641.452	48.38
641.469	12.98
641.485	2.18
641.502	6.18
641.519	-24.42
641.535	-5.82
641.552	49.78
641.569	51.78
641.585	-7.82
641.602	-1.02
641.619	15.98
641.635	-25.82
641.652	-30.22
641.669	6.18
641.685	26.38
641.702	21.78
641.719	28.18
641.735	32.38
641.752	7.98
641.769	-13.22
641.785	-23.22
641.802	-22.42
641.818	23.18
641.835	39.38
641.852	16.18
641.868	17.78
641.885	21.58
641.902	-10.62
641.918	-9.22
641.935	8.18
641.951	6.38
641.968	-12.22
641.985	-34.42
642.001	4.38
642.018	24.18
642.034	5.98
642.051	-11.62
642.068	-36.42
642.084	-3.42
642.101	-3.42
642.117	-4.22
642.134	2.58
642.151	11.78
642.167	-7.62
642.184	-24.02
642.2	19.98
642.217	50.78
642.233	39.58
642.25	-5.42
642.267	8.38
642.283	19.18
642.3	-1.02
642.316	-29.62
642.333	-4.62
642.349	-10.42
642.366	-40.62
642.382	-52.82
642.399	128.38
642.416	354.78
642.432	41.18
642.449	-45.82
642.465	-15.02
642.482	5.98
642.498	-7.02
642.515	-1.62
642.531	-24.42
642.548	-0.42
642.564	22.98
642.581	6.98
642.597	-4.82
642.614	21.98
642.63	32.38
642.647	-6.42
642.663	13.18
642.68	7.18
642.696	22.78
642.713	-25.42
642.729	1.58
642.746	37.78
642.762	3.38
642.779	-6.62
642.795	-25.02
642.812	-30.02
642.828	-37.42
642.845	-31.62
642.861	-18.22
642.878	-20.62
642.894	0.58
642.911	34.58
642.927	-12.42
642.944	3.98
642.96	35.98
642.977	-10.62
642.993	3.58
643.01	8.98
643.026	-13.82
643.042	-29.42
643.059	-9.42
643.075	-14.22
643.092	-34.02
643.108	-44.42
643.125	-30.22
643.141	-15.82
643.158	-18.22
643.174	-6.22
643.19	54.78
643.207	42.38
643.223	-12.82
643.24	-2.62
643.256	-11.62
643.272	-14.02
643.289	-13.22
643.305	-2.82
643.322	11.38
643.338	6.58
643.355	4.38
643.371	12.18
643.387	4.38
643.404	-14.02
643.42	-11.62
643.437	8.38
643.453	36.18
643.469	10.98
643.486	-3.22
643.502	12.98
643.518	3.58
643.535	-6.82
643.551	13.38
643.568	-7.02
643.584	0.18
643.6	-5.22
643.617	-1.42
643.633	-14.62
643.649	-2.42
643.666	8.78
643.682	-13.82
643.698	-4.82
643.715	-12.42
643.731	-8.62
643.748	-17.02
643.764	-3.62
643.78	-2.42
643.797	22.18
643.813	15.78
643.829	13.78
643.846	-6.02
643.862	45.18
643.878	44.58
643.895	13.98
643.911	13.58
643.927	19.58
643.943	25.78
643.96	-33.22
643.976	-34.42
643.992	12.98
644.009	31.38
644.025	0.78
644.041	-3.22
644.058	21.98
644.074	28.98
644.09	2.58
644.106	8.78
644.123	7.58
644.139	8.98
644.155	-12.62
644.172	-14.22
644.188	39.38
644.204	18.78
644.22	5.18
644.237	10.98
644.253	4.98
644.269	4.98
644.286	-5.42
644.302	-18.62
644.318	-3.82
644.334	18.98
644.351	11.98
644.367	3.58
644.383	9.58
644.399	8.38
644.416	3.58
644.432	-18.42
644.448	-32.22
644.464	-23.82
644.481	-20.42
644.497	-13.02
644.513	13.58
644.529	2.38
644.545	6.18
644.562	-4.02
644.578	14.38
644.594	3.78
644.61	-7.82
644.627	-13.82
644.643	1.18
644.659	-11.42
644.675	-48.22
644.691	-35.82
644.708	-4.62
644.724	9.18
644.74	-22.62
644.756	-5.02
644.772	20.18
644.789	37.58
644.805	5.98
644.821	-23.02
644.837	6.78
644.853	21.98
644.869	-3.02
644.886	12.78
644.902	37.58
644.918	32.98
644.934	1.18
644.95	30.98
644.966	0.58
644.983	2.18
644.999	-19.02
645.015	-24.42
645.031	10.58
645.047	16.78
645.063	4.18
645.079	90.78
645.096	216.98
645.112	18.58
645.128	6.58
645.144	-1.82
645.16	25.38
645.176	6.98
645.192	-8.62
645.209	15.38
645.225	12.78
645.241	41.78
645.257	30.38
645.273	15.58
645.289	31.18
645.305	-3.42
645.321	-4.22
645.337	6.38
645.354	33.98
645.37	-4.22
645.386	-5.42
645.402	2.78
645.418	-1.22
645.434	-21.82
645.45	-8.02
645.466	6.18
645.482	-1.82
645.498	0.98
645.514	-40.02
645.531	-28.62
645.547	2.98
645.563	8.78
645.579	-22.62
645.595	-4.82
645.611	-7.02
645.627	15.58
645.643	15.78
645.659	20.58
645.675	16.58
645.691	-7.02
645.707	-20.42
645.723	-18.22
645.739	11.78
645.755	3.58
645.771	-25.42
645.787	-4.42
645.803	43.98
645.819	62.98
645.835	-11.42
645.852	25.58
645.868	18.18
645.884	-16.42
645.9	-20.62
645.916	-2.62
645.932	-21.82
645.948	-3.42
645.964	-10.62
645.98	2.58
645.996	35.58
646.012	35.98
646.028	-0.82
646.044	-0.42
646.06	-0.62
646.076	-10.62
646.092	12.18
646.108	-14.22
646.124	15.58
646.14	23.58
646.156	0.38
646.172	24.78
646.188	41.58
646.203	1.98
646.219	-24.22
646.235	39.98
646.251	69.18
646.267	5.38
646.283	10.38
646.299	3.78
646.315	51.38
646.331	55.78
646.347	26.98
646.363	-11.42
646.379	-15.22
646.395	-36.82
646.411	-11.02
646.427	-6.42
646.443	-10.22
646.459	-12.62
646.475	6.78
646.491	-2.22
646.506	-10.22
646.522	-35.82
646.538	-17.62
646.554	-14.02
646.57	0.18
646.586	-6.02
646.602	6.38
646.618	-2.02
646.634	10.38
646.65	21.58
646.666	-10.82
646.682	-20.62
646.697	14.38
646.713	14.98
646.729	-5.22
646.745	4.78
646.761	41.78
646.777	25.38
646.793	-17.42
646.809	-8.62
646.824	-19.42
646.84	1.78
646.856	-7.42
646.872	-1.62
646.888	15.78
646.904	-21.22
646.92	-10.62
646.936	-5.42
646.951	-5.62
646.967	10.18
646.983	33.38
646.999	23.38
647.015	21.38
647.031	42.58
647.047	-5.62
647.062	-16.42
647.078	-17.22
647.094	-15.82
647.11	-14.22
647.126	-23.82
647.142	7.98
647.157	53.98
647.173	0.38
647.189	-10.02
647.205	-28.02
647.221	-36.02
647.236	-10.82
647.252	-4.02
647.268	-13.22
647.284	-13.42
647.3	11.58
647.315	0.98
647.331	6.58
647.347	28.18
647.363	-1.22
647.379	14.18
647.394	22.38
647.41	10.38
647.426	0.78
647.442	-5.62
647.458	5.78
647.473	11.38
647.489	-0.42
647.505	20.78
647.521	23.38
647.536	-0.02
647.552	-23.62
647.568	-18.02
647.584	26.78
647.599	16.58
647.615	-1.42
647.631	6.58
647.647	15.38
647.662	6.18
647.678	-21.42
647.694	-42.22
647.71	-20.22
647.725	-47.02
647.741	-38.82
647.757	-12.42
647.773	15.38
647.788	13.38
647.804	-9.42
647.82	2.98
647.835	28.98
647.851	13.78
647.867	-16.02
647.883	-9.02
647.898	11.98
647.914	28.78
647.93	16.78
647.945	-14.22
647.961	13.78
647.977	24.78
647.993	-11.02
648.008	10.58
648.024	31.38
648.04	-12.62
648.055	-13.62
648.071	-7.22
648.087	1.18
648.102	-32.22
648.118	-30.82
648.134	-27.02
648.149	1.18
648.165	8.58
648.181	-10.62
648.196	-24.02
648.212	-13.82
648.228	-5.82
648.243	-1.22
648.259	5.98
648.275	1.98
648.29	4.58
648.306	5.98
648.322	3.98
648.337	2.78
648.353	41.98
648.368	34.78
648.384	66.38
648.4	13.98
648.415	-18.82
648.431	-10.22
648.447	5.38
648.462	41.78
648.478	20.58
648.493	-35.42
648.509	0.58
648.525	19.58
648.54	-30.22
648.556	-29.82
648.572	11.18
648.587	13.98
648.603	0.98
648.618	6.78
648.634	3.18
648.65	24.18
648.665	15.78
648.681	-15.22
648.696	17.58
648.712	66.78
648.727	65.98
648.743	38.78
648.759	53.38
648.774	56.18
648.79	6.78
648.805	-34.42
648.821	-14.82
648.836	20.78
648.852	-4.42
648.868	-8.42
648.883	-3.22
648.899	4.78
648.914	-14.82
648.93	2.58
648.945	23.98
648.961	52.18
648.976	24.58
648.992	0.38
649.007	0.98
649.023	13.78
649.039	13.18
649.054	-20.42
649.07	7.98
649.085	-10.62
649.101	8.58
649.116	-24.82
649.132	5.58
649.147	9.78
649.163	-5.62
649.178	-12.62
649.194	3.78
649.209	60.18
649.225	44.78
649.24	24.98
649.256	43.98
649.271	35.98
649.287	7.38
649.302	-9.22
649.318	-1.82
649.333	-26.62
649.349	-0.62
649.364	11.78
649.38	24.78
649.395	33.78
649.41	30.58
649.426	13.78
649.441	-3.22
649.457	20.18
649.472	-11.22
649.488	-1.02
649.503	18.58
649.519	37.78
649.534	38.38
649.55	34.18
649.565	39.98
649.581	35.98
649.596	15.78
649.611	-0.42
649.627	17.58
649.642	8.78
649.658	-15.82
649.673	18.58
649.689	26.78
649.704	38.18
649.719	46.78
649.735	15.18
649.75	40.58
649.766	10.78
649.781	20.58
649.796	-26.42
649.812	7.18
649.827	40.78
649.843	-3.82
649.858	4.18
649.874	-12.82
649.889	8.58
649.904	20.58
649.92	-1.82
649.935	-9.02
649.95	31.78
649.966	-7.22
649.981	-4.02
649.997	6.18
650.012	-6.62
650.027	-9.62
650.043	-15.62
650.058	-10.82
650.073	5.78
650.089	16.78
650.104	24.58
650.12	-15.42
650.135	-1.42
650.15	-4.62
650.166	4.58
650.181	6.98
650.196	33.98
650.212	20.18
650.227	-13.22
650.242	19.38
650.258	14.98
650.273	8.78
650.288	-10.42
650.304	4.78
650.319	2.58
650.334	-8.42
650.35	4.38
650.365	64.78
650.38	39.98
650.396	-7.82
650.411	-0.42
650.426	-2.62
650.441	19.18
650.457	9.78
650.472	5.98
650.487	16.98
650.503	-5.82
650.518	-18.82
650.533	-4.02
650.549	26.58
650.564	38.78
650.579	17.58
650.594	8.98
650.61	17.58
650.625	32.58
650.64	18.78
650.656	-20.42
650.671	-17.62
650.686	8.98
650.701	23.98
650.717	10.38
650.732	36.38
650.747	19.58
650.762	13.38
650.778	16.18
650.793	10.78
650.808	29.78
650.823	11.18
650.839	2.58
650.854	13.38
650.869	40.98
650.884	57.58
650.9	2.38
650.915	0.78
650.93	-9.22
650.945	-5.82
650.96	8.98
650.976	12.78
650.991	-0.42
651.006	-11.22
651.021	-11.62
651.037	2.38
651.052	13.18
651.067	-37.62
651.082	-26.22
651.097	-23.62
651.113	-8.22
651.128	-18.82
651.143	14.38
651.158	-5.22
651.173	4.38
651.189	41.18
651.204	-23.02
651.219	-25.42
651.234	39.58
651.249	34.98
651.264	-2.62
651.28	-10.62
651.295	-2.82
651.31	40.78
651.325	-46.02
651.34	-32.22
651.355	-12.62
651.371	-34.22
651.386	-55.82
651.401	-17.82
651.416	11.78
651.431	-3.82
651.446	-22.62
651.461	-33.82
651.477	16.98
651.492	47.78
651.507	12.38
651.522	3.98
651.537	-3.82
