Data from h2-3_HR4C25001_18-05-21-197.txt Node
Date: Thu Aug 31 18:05:21 CDT 2023
User: kk37594
Spectrometer: HR4C2500
Trigger mode: 4
Integration Time (sec): 2.500000E-1
Scans to average: 5
Electric dark correction enabled: true
Nonlinearity correction enabled: false
Boxcar width: 0
XAxis mode: Wavelengths
Number of Pixels in Spectrum: 3648
>>>>>Begin Spectral Data<<<<<
629.667	-136.45
629.685	-136.45
629.703	-136.45
629.722	-158.05
629.74	-114.85
629.758	0.55
629.776	9.75
629.795	39.95
629.813	10.55
629.831	-23.85
629.85	11.15
629.868	15.75
629.886	33.55
629.905	-42.85
629.923	-29.85
629.941	-11.45
629.96	-2.45
629.978	-10.85
629.996	-15.45
630.014	49.35
630.033	41.75
630.051	26.75
630.069	12.35
630.088	45.75
630.106	14.35
630.124	-22.05
630.142	-8.45
630.161	-27.45
630.179	-18.65
630.197	-14.85
630.216	52.75
630.234	210.15
630.252	79.95
630.27	27.75
630.289	18.35
630.307	12.75
630.325	-1.65
630.343	-4.45
630.362	28.35
630.38	66.75
630.398	17.55
630.416	-1.25
630.435	-13.25
630.453	12.15
630.471	30.55
630.489	8.35
630.507	23.95
630.526	21.15
630.544	19.95
630.562	6.95
630.58	4.95
630.599	17.95
630.617	5.35
630.635	-15.25
630.653	6.55
630.671	32.35
630.69	6.35
630.708	12.15
630.726	16.55
630.744	13.15
630.762	-10.05
630.781	-19.65
630.799	4.55
630.817	28.95
630.835	41.95
630.853	-1.25
630.871	-6.65
630.89	22.75
630.908	3.15
630.926	-31.65
630.944	28.95
630.962	83.75
630.98	110.55
630.999	26.35
631.017	14.75
631.035	8.55
631.053	-18.25
631.071	7.15
631.089	1.35
631.108	1.95
631.126	21.55
631.144	7.15
631.162	14.75
631.18	30.35
631.198	24.15
631.216	-1.85
631.234	-19.25
631.253	8.95
631.271	15.55
631.289	10.15
631.307	11.15
631.325	23.15
631.343	38.55
631.361	3.35
631.379	19.15
631.398	16.15
631.416	10.15
631.434	-16.65
631.452	-6.45
631.47	-23.25
631.488	-16.85
631.506	-24.25
631.524	-23.25
631.542	9.15
631.56	5.35
631.578	0.75
631.597	0.15
631.615	-30.05
631.633	-12.85
631.651	-1.05
631.669	-14.25
631.687	46.55
631.705	64.35
631.723	16.75
631.741	-0.65
631.759	10.55
631.777	2.35
631.795	11.35
631.813	16.95
631.831	5.75
631.849	38.55
631.867	22.15
631.885	14.75
631.903	35.95
631.922	-10.05
631.94	-15.25
631.958	-6.45
631.976	29.35
631.994	-5.45
632.012	-20.25
632.03	9.35
632.048	43.15
632.066	37.15
632.084	-4.45
632.102	-12.45
632.12	-21.65
632.138	-6.45
632.156	16.15
632.174	-15.25
632.192	-22.65
632.21	-7.65
632.228	-30.25
632.246	-16.65
632.264	19.15
632.282	40.75
632.3	-9.25
632.318	-2.05
632.336	15.95
632.354	20.55
632.372	-2.45
632.39	5.55
632.408	8.95
632.426	-20.25
632.443	21.55
632.461	4.75
632.479	8.75
632.497	10.95
632.515	0.15
632.533	21.35
632.551	29.95
632.569	15.55
632.587	-17.05
632.605	-17.05
632.623	17.75
632.641	30.95
632.659	-37.05
632.677	-17.85
632.695	-4.25
632.713	-6.25
632.731	9.95
632.748	12.75
632.766	27.95
632.784	35.55
632.802	13.35
632.82	29.35
632.838	10.75
632.856	-8.25
632.874	10.55
632.892	-1.65
632.91	1.35
632.928	11.55
632.945	0.15
632.963	11.95
632.981	27.35
632.999	11.55
633.017	-8.85
633.035	9.35
633.053	7.75
633.071	7.35
633.089	-21.65
633.106	5.75
633.124	44.75
633.142	4.95
633.16	16.75
633.178	14.35
633.196	42.35
633.214	36.55
633.231	13.35
633.249	-21.45
633.267	2.55
633.285	15.55
633.303	-31.45
633.321	-19.05
633.339	25.15
633.356	55.35
633.374	14.75
633.392	-0.65
633.41	-9.45
633.428	13.35
633.446	-3.65
633.463	-30.25
633.481	-14.85
633.499	-19.85
633.517	-6.45
633.535	-8.05
633.552	16.55
633.57	-5.25
633.588	-26.65
633.606	-32.85
633.624	8.35
633.641	11.75
633.659	-15.65
633.677	-30.85
633.695	-6.45
633.713	26.95
633.73	7.15
633.748	-16.05
633.766	-2.45
633.784	10.35
633.802	-11.85
633.819	-9.05
633.837	-1.45
633.855	-53.25
633.873	-59.65
633.89	-34.45
633.908	13.55
633.926	2.55
633.944	-21.85
633.961	-2.45
633.979	27.35
633.997	-43.05
634.015	-7.85
634.032	28.95
634.05	40.35
634.068	-10.25
634.086	16.15
634.103	13.95
634.121	2.75
634.139	31.15
634.157	0.95
634.174	-4.45
634.192	-6.25
634.21	-0.25
634.227	13.95
634.245	22.75
634.263	41.55
634.281	55.95
634.298	4.35
634.316	1.75
634.334	4.15
634.351	-19.05
634.369	-37.65
634.387	9.75
634.404	29.75
634.422	-6.85
634.44	-12.45
634.458	-29.25
634.475	25.35
634.493	57.95
634.511	-15.05
634.528	-3.85
634.546	8.55
634.564	3.55
634.581	-40.25
634.599	-0.25
634.617	23.75
634.634	16.15
634.652	-20.65
634.67	-12.05
634.687	33.75
634.705	14.35
634.723	-12.85
634.74	23.35
634.758	11.95
634.775	-1.45
634.793	-14.45
634.811	36.15
634.828	22.75
634.846	-5.65
634.864	-13.85
634.881	29.35
634.899	-1.65
634.917	-5.85
634.934	-13.65
634.952	19.75
634.969	24.35
634.987	22.75
635.005	-5.65
635.022	16.15
635.04	31.55
635.057	8.55
635.075	-17.65
635.093	5.95
635.11	29.35
635.128	21.75
635.145	-12.85
635.163	24.95
635.181	17.35
635.198	23.55
635.216	11.55
635.233	8.35
635.251	30.15
635.268	-6.45
635.286	-5.45
635.304	-16.65
635.321	-23.85
635.339	-41.25
635.356	-31.65
635.374	-13.85
635.391	-7.65
635.409	-14.65
635.426	0.55
635.444	-0.25
635.462	-3.45
635.479	-2.45
635.497	-12.65
635.514	11.55
635.532	15.35
635.549	2.15
635.567	-19.05
635.584	6.75
635.602	65.35
635.619	55.55
635.637	-20.85
635.654	11.95
635.672	-2.45
635.689	15.75
635.707	-9.05
635.724	-3.05
635.742	-10.65
635.759	-20.45
635.777	-19.25
635.795	-2.65
635.812	42.15
635.829	4.55
635.847	-30.05
635.864	5.75
635.882	22.95
635.899	28.75
635.917	-14.45
635.934	-24.45
635.952	-6.05
635.969	-8.25
635.987	26.95
636.004	77.15
636.022	29.55
636.039	-16.25
636.057	3.55
636.074	1.15
636.092	9.75
636.109	-12.65
636.127	0.75
636.144	-5.05
636.161	49.75
636.179	1.55
636.196	-15.65
636.214	-15.85
636.231	6.75
636.249	-10.65
636.266	-12.85
636.283	11.75
636.301	25.35
636.318	9.15
636.336	-10.25
636.353	-4.25
636.371	25.95
636.388	3.75
636.405	9.35
636.423	13.95
636.44	23.75
636.458	-10.05
636.475	-31.45
636.492	-26.25
636.51	-8.25
636.527	-2.25
636.545	-11.85
636.562	-10.25
636.579	-14.05
636.597	-25.25
636.614	-16.05
636.632	-7.25
636.649	52.35
636.666	37.35
636.684	-4.25
636.701	-22.05
636.718	-21.25
636.736	-15.05
636.753	-2.65
636.771	16.95
636.788	26.55
636.805	3.75
636.823	-16.05
636.84	-13.85
636.857	-14.45
636.875	-29.05
636.892	-26.65
636.909	24.55
636.927	27.75
636.944	-10.85
636.961	-31.05
636.979	-23.65
636.996	3.75
637.013	-2.45
637.031	-19.05
637.048	-35.05
637.065	6.15
637.083	9.55
637.1	-28.25
637.117	-30.45
637.135	17.35
637.152	27.15
637.169	-3.85
637.187	-18.05
637.204	27.35
637.221	12.55
637.238	-14.25
637.256	36.35
637.273	15.55
637.29	21.55
637.308	-18.85
637.325	-10.45
637.342	13.75
637.359	43.95
637.377	36.35
637.394	62.55
637.411	6.75
637.428	12.15
637.446	-23.25
637.463	4.35
637.48	73.75
637.498	23.35
637.515	-11.85
637.532	15.75
637.549	3.55
637.567	-13.25
637.584	-14.45
637.601	-6.85
637.618	21.75
637.636	14.15
637.653	-5.45
637.67	-13.25
637.687	13.35
637.704	12.15
637.722	-1.45
637.739	12.35
637.756	39.95
637.773	26.95
637.791	-10.65
637.808	13.75
637.825	9.75
637.842	17.95
637.859	-10.05
637.877	-1.85
637.894	7.15
637.911	-1.65
637.928	-18.85
637.945	12.95
637.963	35.35
637.98	21.95
637.997	3.55
638.014	-25.05
638.031	-1.25
638.049	18.75
638.066	-21.25
638.083	-0.05
638.1	9.95
638.117	3.95
638.134	-17.65
638.152	-17.05
638.169	-28.45
638.186	-14.45
638.203	-32.05
638.22	-43.25
638.237	-40.05
638.255	-31.85
638.272	-27.25
638.289	-16.85
638.306	-11.85
638.323	9.15
638.34	7.15
638.357	16.75
638.374	56.15
638.392	-10.65
638.409	-30.65
638.426	-9.45
638.443	5.55
638.46	-1.25
638.477	3.75
638.494	26.35
638.511	35.15
638.529	20.95
638.546	-34.25
638.563	-16.65
638.58	7.75
638.597	13.95
638.614	-5.25
638.631	-1.25
638.648	8.15
638.665	3.75
638.682	-3.05
638.7	10.95
638.717	30.75
638.734	-0.45
638.751	-7.65
638.768	1.35
638.785	1.55
638.802	-12.85
638.819	-5.65
638.836	12.75
638.853	47.75
638.87	-6.65
638.887	-38.85
638.904	-19.65
638.921	25.75
638.939	28.15
638.956	7.55
638.973	-9.85
638.99	20.75
639.007	31.75
639.024	-0.65
639.041	14.75
639.058	36.35
639.075	14.95
639.092	16.35
639.109	-39.25
639.126	-33.05
639.143	-11.25
639.16	-15.85
639.177	23.95
639.194	64.35
639.211	67.15
639.228	33.95
639.245	-7.05
639.262	-1.05
639.279	-4.85
639.296	6.15
639.313	12.75
639.33	-1.65
639.347	20.95
639.364	-4.45
639.381	0.55
639.398	25.55
639.415	18.55
639.432	1.95
639.449	-18.25
639.466	23.95
639.483	26.35
639.5	7.95
639.517	-3.65
639.534	-25.25
639.551	-31.05
639.568	-48.45
639.585	-24.65
639.602	13.55
639.619	5.15
639.636	11.55
639.653	27.55
639.669	-12.65
639.686	-4.65
639.703	15.55
639.72	15.15
639.737	8.15
639.754	28.15
639.771	27.15
639.788	47.15
639.805	65.55
639.822	10.35
639.839	-8.85
639.856	-4.65
639.873	10.55
639.89	33.35
639.906	-22.65
639.923	-10.85
639.94	11.75
639.957	20.15
639.974	-5.25
639.991	13.55
640.008	22.15
640.025	12.95
640.042	-13.65
640.059	-8.65
640.075	6.35
640.092	26.95
640.109	12.75
640.126	13.95
640.143	-7.85
640.16	-9.85
640.177	-9.85
640.194	-23.85
640.21	-7.05
640.227	19.35
640.244	6.95
640.261	25.35
640.278	46.55
640.295	12.15
640.312	-33.85
640.328	-14.05
640.345	18.15
640.362	-1.45
640.379	-15.65
640.396	32.95
640.413	78.75
640.43	5.75
640.446	-37.05
640.463	-13.25
640.48	-10.65
640.497	-24.25
640.514	-23.05
640.531	-1.05
640.547	19.55
640.564	11.15
640.581	26.15
640.598	28.35
640.615	1.95
640.631	1.55
640.648	-19.05
640.665	-3.45
640.682	36.55
640.699	-18.85
640.715	-10.25
640.732	-9.25
640.749	-1.25
640.766	30.95
640.783	19.75
640.799	6.75
640.816	28.95
640.833	12.55
640.85	2.95
640.866	18.15
640.883	68.95
640.9	14.75
640.917	-8.65
640.933	-29.65
640.95	-16.45
640.967	-1.25
640.984	-18.45
641.001	-26.05
641.017	-20.65
641.034	-20.05
641.051	-19.25
641.068	-21.05
641.084	25.75
641.101	2.15
641.118	8.55
641.134	-7.05
641.151	-3.85
641.168	-3.05
641.185	-20.65
641.201	29.15
641.218	38.95
641.235	-1.25
641.252	-14.65
641.268	12.15
641.285	2.15
641.302	6.15
641.318	-27.85
641.335	-19.65
641.352	1.75
641.368	18.55
641.385	10.35
641.402	13.35
641.419	24.75
641.435	18.55
641.452	44.55
641.469	12.35
641.485	0.75
641.502	8.95
641.519	-21.45
641.535	-6.45
641.552	50.35
641.569	47.55
641.585	-13.05
641.602	4.75
641.619	24.55
641.635	-20.45
641.652	-18.25
641.669	9.95
641.685	26.75
641.702	26.95
641.719	25.55
641.735	24.55
641.752	7.95
641.769	-2.45
641.785	-18.45
641.802	-25.45
641.818	30.15
641.835	49.55
641.852	13.55
641.868	12.55
641.885	22.35
641.902	-2.85
641.918	-10.45
641.935	12.15
641.951	10.35
641.968	-15.65
641.985	-44.85
642.001	-2.85
642.018	17.35
642.034	11.75
642.051	-14.85
642.068	-33.65
642.084	1.95
642.101	1.95
642.117	3.95
642.134	1.15
642.151	19.55
642.167	-0.45
642.184	-21.25
642.2	18.15
642.217	56.75
642.233	40.75
642.25	-0.85
642.267	13.95
642.283	32.15
642.3	7.75
642.316	-29.05
642.333	-6.25
642.349	-13.85
642.366	-32.25
642.382	-47.65
642.399	180.55
642.416	471.95
642.432	56.95
642.449	-38.05
642.465	-7.85
642.482	17.55
642.498	-2.45
642.515	-4.05
642.531	-15.25
642.548	4.55
642.564	21.95
642.581	9.15
642.597	-0.05
642.614	25.95
642.63	38.75
642.647	-2.25
642.663	14.95
642.68	3.55
642.696	19.35
642.713	-18.65
642.729	2.95
642.746	36.95
642.762	6.15
642.779	-5.65
642.795	-21.25
642.812	-22.65
642.828	-28.05
642.845	-24.45
642.861	-18.05
642.878	-17.45
642.894	0.35
642.911	32.15
642.927	-12.85
642.944	11.95
642.96	49.15
642.977	-2.05
642.993	9.95
643.01	11.15
643.026	-12.25
643.042	-23.25
643.059	-3.85
643.075	-15.25
643.092	-34.05
643.108	-42.45
643.125	-21.85
643.141	-9.25
643.158	-14.25
643.174	-5.25
643.19	62.15
643.207	51.15
643.223	-7.05
643.24	-0.05
643.256	-4.85
643.272	-14.45
643.289	-12.65
643.305	-7.65
643.322	10.35
643.338	14.15
643.355	13.15
643.371	17.35
643.387	3.75
643.404	-11.25
643.42	-4.05
643.437	6.95
643.453	38.95
643.469	13.95
643.486	-3.45
643.502	15.75
643.518	5.55
643.535	-14.05
643.551	17.75
643.568	-8.65
643.584	-0.25
643.6	-5.65
643.617	17.15
643.633	2.55
643.649	8.75
643.666	10.75
643.682	-7.45
643.698	-6.85
643.715	-19.05
643.731	-3.65
643.748	-12.65
643.764	-9.65
643.78	-5.65
643.797	19.15
643.813	24.15
643.829	23.95
643.846	-0.05
643.862	49.95
643.878	46.55
643.895	11.95
643.911	22.55
643.927	20.95
643.943	30.95
643.96	-28.25
643.976	-33.65
643.992	13.95
644.009	31.35
644.025	-4.25
644.041	2.95
644.058	27.15
644.074	29.35
644.09	-0.05
644.106	10.95
644.123	11.95
644.139	-2.05
644.155	-13.25
644.172	-15.65
644.188	43.75
644.204	28.95
644.22	9.95
644.237	14.15
644.253	12.75
644.269	13.35
644.286	0.95
644.302	-14.45
644.318	2.55
644.334	14.75
644.351	19.55
644.367	3.35
644.383	12.75
644.399	13.75
644.416	8.55
644.432	-15.45
644.448	-25.05
644.464	-23.45
644.481	-14.85
644.497	-6.65
644.513	11.95
644.529	-3.25
644.545	9.55
644.562	-0.65
644.578	16.15
644.594	5.15
644.61	2.15
644.627	-10.25
644.643	7.15
644.659	-13.85
644.675	-51.65
644.691	-35.85
644.708	-1.85
644.724	18.55
644.74	-11.25
644.756	4.95
644.772	24.95
644.789	39.95
644.805	7.15
644.821	-15.65
644.837	8.75
644.853	32.15
644.869	5.15
644.886	14.55
644.902	43.35
644.918	46.75
644.934	17.75
644.95	39.95
644.966	8.15
644.983	0.35
644.999	-16.85
645.015	-12.05
645.031	24.35
645.047	32.35
645.063	10.35
645.079	94.95
645.096	216.95
645.112	28.35
645.128	17.55
645.144	5.75
645.16	35.55
645.176	19.55
645.192	2.15
645.209	23.75
645.225	26.95
645.241	40.35
645.257	34.15
645.273	24.15
645.289	33.15
645.305	5.75
645.321	6.95
645.337	11.15
645.354	31.55
645.37	-2.05
645.386	0.55
645.402	6.75
645.418	4.35
645.434	-14.25
645.45	-13.25
645.466	6.15
645.482	2.35
645.498	13.55
645.514	-25.25
645.531	-16.25
645.547	5.75
645.563	11.15
645.579	-8.65
645.595	10.15
645.611	4.55
645.627	26.95
645.643	21.15
645.659	25.15
645.675	32.15
645.691	5.95
645.707	-3.25
645.723	-10.05
645.739	16.35
645.755	7.95
645.771	-21.05
645.787	1.95
645.803	44.95
645.819	66.95
645.835	-9.65
645.852	30.15
645.868	20.95
645.884	-0.65
645.9	-10.85
645.916	-4.65
645.932	-10.45
645.948	-2.05
645.964	-6.25
645.98	7.15
645.996	33.55
646.012	44.75
646.028	10.55
646.044	1.75
646.06	-4.85
646.076	-2.85
646.092	11.35
646.108	-9.65
646.124	23.15
646.14	23.55
646.156	2.35
646.172	30.15
646.188	40.95
646.203	0.55
646.219	-24.65
646.235	45.55
646.251	74.75
646.267	14.15
646.283	16.55
646.299	3.55
646.315	56.95
646.331	64.15
646.347	19.75
646.363	-10.25
646.379	-9.85
646.395	-30.25
646.411	-16.25
646.427	-4.85
646.443	-12.45
646.459	-16.25
646.475	12.55
646.491	16.35
646.506	4.75
646.522	-29.25
646.538	-15.85
646.554	-17.65
646.57	3.35
646.586	9.95
646.602	9.95
646.618	0.95
646.634	12.35
646.65	21.75
646.666	-10.25
646.682	-20.45
646.697	21.35
646.713	11.95
646.729	-8.85
646.745	0.35
646.761	39.75
646.777	27.55
646.793	-10.05
646.809	-7.05
646.824	-20.05
646.84	-4.25
646.856	-16.45
646.872	-5.65
646.888	29.75
646.904	-14.65
646.92	-5.05
646.936	0.95
646.951	-8.05
646.967	12.15
646.983	38.75
646.999	25.55
647.015	24.35
647.031	52.75
647.047	-1.65
647.062	-20.05
647.078	-14.65
647.094	-17.45
647.11	-15.85
647.126	-23.05
647.142	10.95
647.157	55.35
647.173	5.55
647.189	-12.85
647.205	-30.45
647.221	-36.65
647.236	-5.45
647.252	-1.65
647.268	-12.85
647.284	-10.45
647.3	17.95
647.315	1.15
647.331	6.35
647.347	30.95
647.363	0.15
647.379	9.15
647.394	20.95
647.41	22.75
647.426	-1.05
647.442	-6.85
647.458	12.55
647.473	18.35
647.489	9.75
647.505	20.35
647.521	27.35
647.536	5.15
647.552	-26.65
647.568	-20.85
647.584	21.55
647.599	16.95
647.615	-10.85
647.631	4.95
647.647	9.95
647.662	5.55
647.678	-17.85
647.694	-26.65
647.71	-13.25
647.725	-42.45
647.741	-46.65
647.757	-22.85
647.773	14.35
647.788	27.35
647.804	-3.45
647.82	10.75
647.835	36.95
647.851	21.55
647.867	-7.45
647.883	-3.85
647.898	15.15
647.914	33.35
647.93	23.75
647.945	-5.25
647.961	25.55
647.977	29.75
647.993	-4.65
648.008	13.35
648.024	26.75
648.04	-11.25
648.055	-7.85
648.071	-6.25
648.087	4.75
648.102	-20.25
648.118	-26.25
648.134	-20.05
648.149	16.95
648.165	13.15
648.181	-11.05
648.196	-22.05
648.212	-13.05
648.228	-3.45
648.243	-1.25
648.259	6.75
648.275	-0.85
648.29	11.55
648.306	0.75
648.322	3.75
648.337	3.55
648.353	37.95
648.368	40.15
648.384	74.35
648.4	25.75
648.415	-3.65
648.431	-2.45
648.447	16.55
648.462	51.75
648.478	24.15
648.493	-27.25
648.509	-0.25
648.525	24.75
648.54	-22.65
648.556	-22.25
648.572	18.55
648.587	19.35
648.603	3.35
648.618	11.35
648.634	0.55
648.65	26.35
648.665	20.35
648.681	-15.05
648.696	14.55
648.712	61.95
648.727	62.55
648.743	45.55
648.759	47.15
648.774	53.75
648.79	5.55
648.805	-29.85
648.821	-7.85
648.836	20.15
648.852	-10.25
648.868	-18.65
648.883	0.15
648.899	3.55
648.914	-13.45
648.93	-0.25
648.945	18.75
648.961	58.35
648.976	33.75
648.992	9.15
649.007	9.15
649.023	15.35
649.039	18.15
649.054	-12.85
649.07	10.15
649.085	-8.65
649.101	11.15
649.116	-17.05
649.132	6.55
649.147	15.55
649.163	5.55
649.178	-8.05
649.194	6.15
649.209	59.95
649.225	44.95
649.24	25.15
649.256	53.15
649.271	39.55
649.287	8.95
649.302	-12.85
649.318	-4.05
649.333	-19.25
649.349	1.55
649.364	12.75
649.38	31.15
649.395	35.55
649.41	25.35
649.426	11.15
649.441	-14.85
649.457	8.95
649.472	-14.25
649.488	-5.45
649.503	23.15
649.519	46.75
649.534	39.95
649.55	32.95
649.565	42.95
649.581	39.55
649.596	8.95
649.611	-0.05
649.627	17.55
649.642	11.55
649.658	-11.05
649.673	17.75
649.689	38.35
649.704	38.75
649.719	42.95
649.735	12.55
649.75	42.95
649.766	23.15
649.781	20.35
649.796	-15.45
649.812	7.95
649.827	36.55
649.843	5.55
649.858	15.95
649.874	-7.45
649.889	16.75
649.904	22.75
649.92	-5.65
649.935	-19.65
649.95	30.75
649.966	-6.25
649.981	-7.05
649.997	15.75
650.012	2.35
650.027	-7.05
650.043	-8.85
650.058	1.95
650.073	12.35
650.089	28.35
650.104	27.75
650.12	-12.65
650.135	-2.85
650.15	-2.25
650.166	11.15
650.181	5.75
650.196	25.55
650.212	20.35
650.227	-10.85
650.242	18.35
650.258	25.15
650.273	16.95
650.288	-6.05
650.304	15.95
650.319	14.75
650.334	1.95
650.35	8.95
650.365	66.75
650.38	40.75
650.396	-5.25
650.411	0.15
650.426	4.15
650.441	18.95
650.457	18.75
650.472	5.55
650.487	15.15
650.503	-11.85
650.518	-18.05
650.533	0.75
650.549	31.95
650.564	45.35
650.579	17.35
650.594	10.15
650.61	11.15
650.625	24.75
650.64	19.95
650.656	-19.85
650.671	-17.65
650.686	10.35
650.701	31.95
650.717	11.75
650.732	29.55
650.747	23.95
650.762	8.75
650.778	16.35
650.793	6.95
650.808	22.95
650.823	9.75
650.839	4.55
650.854	9.55
650.869	38.55
650.884	57.75
650.9	3.55
650.915	8.35
650.93	-7.05
650.945	-2.05
650.96	10.75
650.976	8.55
650.991	1.35
651.006	-3.05
651.021	-5.85
651.037	7.75
651.052	12.35
651.067	-44.45
651.082	-20.45
651.097	-23.05
651.113	-16.05
651.128	-18.25
651.143	15.35
651.158	-5.45
651.173	9.15
651.189	42.95
651.204	-17.45
651.219	-18.65
651.234	34.75
651.249	33.15
651.264	0.15
651.28	-9.65
651.295	-8.85
651.31	34.75
651.325	-39.85
651.34	-16.45
651.355	-5.25
651.371	-30.45
651.386	-48.45
651.401	-6.25
651.416	18.35
651.431	0.75
651.446	-29.25
651.461	-33.85
651.477	16.55
651.492	50.55
651.507	7.75
651.522	1.55
651.537	-6.25
651.552	-20.25
