Data from h2d2-3_HR4C25001_18-33-53-043.txt Node
Date: Thu Aug 31 18:33:53 CDT 2023
User: kk37594
Spectrometer: HR4C2500
Trigger mode: 4
Integration Time (sec): 1.000000E-1
Scans to average: 1
Electric dark correction enabled: true
Nonlinearity correction enabled: false
Boxcar width: 0
XAxis mode: Wavelengths
Number of Pixels in Spectrum: 3648
>>>>>Begin Spectral Data<<<<<
629.667	-23.62
629.685	-23.62
629.703	-23.62
629.722	-57.62
629.74	-46.62
629.758	-6.62
629.776	-6.62
629.795	15.38
629.813	2.38
629.831	2.38
629.85	6.38
629.868	-4.62
629.886	8.38
629.905	-2.62
629.923	-3.62
629.941	-3.62
629.96	-4.62
629.978	-2.62
629.996	-2.62
630.014	15.38
630.033	13.38
630.051	5.38
630.069	-8.62
630.088	9.38
630.106	-5.62
630.124	-7.62
630.142	-5.62
630.161	-5.62
630.179	1.38
630.197	-3.62
630.216	18.38
630.234	68.38
630.252	22.38
630.27	15.38
630.289	13.38
630.307	12.38
630.325	6.38
630.343	18.38
630.362	24.38
630.38	20.38
630.398	-2.62
630.416	-4.62
630.435	-6.62
630.453	13.38
630.471	23.38
630.489	26.38
630.507	17.38
630.526	0.38
630.544	7.38
630.562	18.38
630.58	-0.62
630.599	11.38
630.617	6.38
630.635	5.38
630.653	12.38
630.671	13.38
630.69	-6.62
630.708	10.38
630.726	17.38
630.744	5.38
630.762	-7.62
630.781	-10.62
630.799	1.38
630.817	13.38
630.835	24.38
630.853	15.38
630.871	1.38
630.89	7.38
630.908	-1.62
630.926	-18.62
630.944	13.38
630.962	20.38
630.98	34.38
630.999	12.38
631.017	3.38
631.035	-1.62
631.053	-7.62
631.071	13.38
631.089	3.38
631.108	-3.62
631.126	-4.62
631.144	6.38
631.162	10.38
631.18	6.38
631.198	19.38
631.216	21.38
631.234	-9.62
631.253	-2.62
631.271	2.38
631.289	7.38
631.307	6.38
631.325	5.38
631.343	0.38
631.361	1.38
631.379	19.38
631.398	8.38
631.416	-6.62
631.434	-4.62
631.452	9.38
631.47	-14.62
631.488	1.38
631.506	-3.62
631.524	0.38
631.542	1.38
631.56	-8.62
631.578	1.38
631.597	10.38
631.615	-13.62
631.633	5.38
631.651	12.38
631.669	3.38
631.687	26.38
631.705	35.38
631.723	16.38
631.741	-14.62
631.759	-13.62
631.777	5.38
631.795	16.38
631.813	28.38
631.831	15.38
631.849	20.38
631.867	19.38
631.885	9.38
631.903	1.38
631.922	-0.62
631.94	0.38
631.958	4.38
631.976	22.38
631.994	-4.62
632.012	-1.62
632.03	5.38
632.048	8.38
632.066	24.38
632.084	8.38
632.102	-4.62
632.12	-3.62
632.138	-3.62
632.156	28.38
632.174	-7.62
632.192	-15.62
632.21	-5.62
632.228	-3.62
632.246	8.38
632.264	7.38
632.282	9.38
632.3	-0.62
632.318	-8.62
632.336	11.38
632.354	16.38
632.372	2.38
632.39	-5.62
632.408	-4.62
632.426	4.38
632.443	2.38
632.461	5.38
632.479	-3.62
632.497	-9.62
632.515	3.38
632.533	5.38
632.551	0.38
632.569	-1.62
632.587	7.38
632.605	-2.62
632.623	22.38
632.641	-2.62
632.659	-8.62
632.677	19.38
632.695	13.38
632.713	-1.62
632.731	2.38
632.748	4.38
632.766	20.38
632.784	16.38
632.802	18.38
632.82	24.38
632.838	1.38
632.856	0.38
632.874	17.38
632.892	-11.62
632.91	-11.62
632.928	-3.62
632.945	-6.62
632.963	-7.62
632.981	1.38
632.999	2.38
633.017	6.38
633.035	9.38
633.053	12.38
633.071	-9.62
633.089	-4.62
633.106	-6.62
633.124	4.38
633.142	12.38
633.16	37.38
633.178	5.38
633.196	8.38
633.214	19.38
633.231	21.38
633.249	-7.62
633.267	6.38
633.285	9.38
633.303	-11.62
633.321	-1.62
633.339	7.38
633.356	12.38
633.374	14.38
633.392	4.38
633.41	-7.62
633.428	7.38
633.446	5.38
633.463	-4.62
633.481	-2.62
633.499	0.38
633.517	1.38
633.535	-3.62
633.552	6.38
633.57	-4.62
633.588	-17.62
633.606	-18.62
633.624	5.38
633.641	8.38
633.659	-6.62
633.677	-8.62
633.695	7.38
633.713	13.38
633.73	16.38
633.748	8.38
633.766	5.38
633.784	4.38
633.802	-11.62
633.819	3.38
633.837	7.38
633.855	-8.62
633.873	-14.62
633.89	-14.62
633.908	-0.62
633.926	5.38
633.944	-5.62
633.961	-0.62
633.979	0.38
633.997	-16.62
634.015	-8.62
634.032	17.38
634.05	9.38
634.068	-9.62
634.086	12.38
634.103	30.38
634.121	6.38
634.139	4.38
634.157	9.38
634.174	-3.62
634.192	-2.62
634.21	-4.62
634.227	12.38
634.245	15.38
634.263	-1.62
634.281	2.38
634.298	0.38
634.316	1.38
634.334	1.38
634.351	-19.62
634.369	-23.62
634.387	3.38
634.404	4.38
634.422	0.38
634.44	-2.62
634.458	-10.62
634.475	0.38
634.493	26.38
634.511	9.38
634.528	-0.62
634.546	-4.62
634.564	-2.62
634.581	-10.62
634.599	10.38
634.617	7.38
634.634	-3.62
634.652	2.38
634.67	6.38
634.687	9.38
634.705	9.38
634.723	12.38
634.74	10.38
634.758	-10.62
634.775	-2.62
634.793	-11.62
634.811	14.38
634.828	1.38
634.846	4.38
634.864	8.38
634.881	4.38
634.899	-3.62
634.917	5.38
634.934	7.38
634.952	0.38
634.969	-5.62
634.987	-0.62
635.005	-7.62
635.022	9.38
635.04	15.38
635.057	7.38
635.075	-7.62
635.093	-0.62
635.11	2.38
635.128	10.38
635.145	-9.62
635.163	18.38
635.181	4.38
635.198	2.38
635.216	4.38
635.233	-5.62
635.251	3.38
635.268	-1.62
635.286	-4.62
635.304	-17.62
635.321	-13.62
635.339	-2.62
635.356	-7.62
635.374	-1.62
635.391	-15.62
635.409	0.38
635.426	21.38
635.444	12.38
635.462	-7.62
635.479	-5.62
635.497	-5.62
635.514	-1.62
635.532	1.38
635.549	8.38
635.567	6.38
635.584	8.38
635.602	7.38
635.619	16.38
635.637	-0.62
635.654	9.38
635.672	-12.62
635.689	1.38
635.707	-2.62
635.724	-5.62
635.742	-9.62
635.759	-18.62
635.777	-7.62
635.795	-0.62
635.812	8.38
635.829	-6.62
635.847	3.38
635.864	17.38
635.882	1.38
635.899	4.38
635.917	5.38
635.934	-7.62
635.952	-16.62
635.969	-10.62
635.987	0.38
636.004	25.38
636.022	6.38
636.039	-11.62
636.057	5.38
636.074	1.38
636.092	-1.62
636.109	-3.62
636.127	-8.62
636.144	-4.62
636.161	8.38
636.179	-8.62
636.196	-26.62
636.214	-11.62
636.231	-3.62
636.249	-2.62
636.266	1.38
636.283	4.38
636.301	6.38
636.318	-4.62
636.336	10.38
636.353	4.38
636.371	5.38
636.388	3.38
636.405	24.38
636.423	23.38
636.44	-0.62
636.458	-5.62
636.475	-3.62
636.492	5.38
636.51	-2.62
636.527	-5.62
636.545	8.38
636.562	-10.62
636.579	-14.62
636.597	-3.62
636.614	-0.62
636.632	1.38
636.649	20.38
636.666	22.38
636.684	15.38
636.701	-2.62
636.718	-11.62
636.736	1.38
636.753	-4.62
636.771	17.38
636.788	19.38
636.805	12.38
636.823	-5.62
636.84	-4.62
636.857	2.38
636.875	-19.62
636.892	-13.62
636.909	21.38
636.927	14.38
636.944	-1.62
636.961	-7.62
636.979	5.38
636.996	-7.62
637.013	-2.62
637.031	-0.62
637.048	-7.62
637.065	7.38
637.083	-3.62
637.1	-15.62
637.117	0.38
637.135	6.38
637.152	-5.62
637.169	-2.62
637.187	0.38
637.204	12.38
637.221	0.38
637.238	4.38
637.256	15.38
637.273	-6.62
637.29	-3.62
637.308	5.38
637.325	7.38
637.342	1.38
637.359	4.38
637.377	5.38
637.394	20.38
637.411	3.38
637.428	11.38
637.446	-3.62
637.463	4.38
637.48	10.38
637.498	9.38
637.515	8.38
637.532	12.38
637.549	1.38
637.567	-6.62
637.584	-16.62
637.601	-0.62
637.618	4.38
637.636	4.38
637.653	-1.62
637.67	-0.62
637.687	7.38
637.704	10.38
637.722	6.38
637.739	5.38
637.756	16.38
637.773	24.38
637.791	6.38
637.808	-3.62
637.825	4.38
637.842	8.38
637.859	-2.62
637.877	14.38
637.894	4.38
637.911	-3.62
637.928	-3.62
637.945	15.38
637.963	8.38
637.98	5.38
637.997	1.38
638.014	-5.62
638.031	-8.62
638.049	-6.62
638.066	-14.62
638.083	-15.62
638.1	-0.62
638.117	16.38
638.134	9.38
638.152	-0.62
638.169	-17.62
638.186	-9.62
638.203	-16.62
638.22	-13.62
638.237	-22.62
638.255	-30.62
638.272	-17.62
638.289	-1.62
638.306	-4.62
638.323	1.38
638.34	-6.62
638.357	8.38
638.374	15.38
638.392	1.38
638.409	0.38
638.426	-10.62
638.443	-2.62
638.46	-10.62
638.477	3.38
638.494	11.38
638.511	3.38
638.529	7.38
638.546	-4.62
638.563	6.38
638.58	11.38
638.597	7.38
638.614	10.38
638.631	-6.62
638.648	-10.62
638.665	-7.62
638.682	-1.62
638.7	11.38
638.717	9.38
638.734	-1.62
638.751	7.38
638.768	4.38
638.785	0.38
638.802	-10.62
638.819	-1.62
638.836	-4.62
638.853	-9.62
638.87	-10.62
638.887	-5.62
638.904	-2.62
638.921	15.38
638.939	11.38
638.956	6.38
638.973	2.38
638.99	-0.62
639.007	2.38
639.024	-1.62
639.041	15.38
639.058	14.38
639.075	12.38
639.092	8.38
639.109	-9.62
639.126	-15.62
639.143	-11.62
639.16	7.38
639.177	17.38
639.194	11.38
639.211	15.38
639.228	6.38
639.245	-1.62
639.262	-1.62
639.279	-3.62
639.296	0.38
639.313	8.38
639.33	-2.62
639.347	4.38
639.364	4.38
639.381	11.38
639.398	15.38
639.415	7.38
639.432	4.38
639.449	-11.62
639.466	-5.62
639.483	11.38
639.5	25.38
639.517	18.38
639.534	-14.62
639.551	-10.62
639.568	-17.62
639.585	1.38
639.602	19.38
639.619	11.38
639.636	-5.62
639.653	11.38
639.669	-0.62
639.686	-6.62
639.703	7.38
639.72	7.38
639.737	-4.62
639.754	1.38
639.771	17.38
639.788	26.38
639.805	32.38
639.822	15.38
639.839	2.38
639.856	-0.62
639.873	-3.62
639.89	12.38
639.906	-15.62
639.923	-7.62
639.94	4.38
639.957	9.38
639.974	18.38
639.991	17.38
640.008	1.38
640.025	-4.62
640.042	-5.62
640.059	9.38
640.075	3.38
640.092	12.38
640.109	-7.62
640.126	0.38
640.143	-14.62
640.16	-5.62
640.177	-6.62
640.194	0.38
640.21	8.38
640.227	5.38
640.244	1.38
640.261	2.38
640.278	10.38
640.295	4.38
640.312	-10.62
640.328	-3.62
640.345	-4.62
640.362	4.38
640.379	5.38
640.396	5.38
640.413	24.38
640.43	13.38
640.446	-9.62
640.463	2.38
640.48	-17.62
640.497	-30.62
640.514	-18.62
640.531	0.38
640.547	0.38
640.564	5.38
640.581	11.38
640.598	12.38
640.615	11.38
640.631	-0.62
640.648	-15.62
640.665	0.38
640.682	26.38
640.699	0.38
640.715	9.38
640.732	-8.62
640.749	-3.62
640.766	18.38
640.783	19.38
640.799	10.38
640.816	-2.62
640.833	6.38
640.85	9.38
640.866	11.38
640.883	7.38
640.9	1.38
640.917	8.38
640.933	-5.62
640.95	-11.62
640.967	-6.62
640.984	-10.62
641.001	-4.62
641.017	-6.62
641.034	-1.62
641.051	8.38
641.068	-6.62
641.084	14.38
641.101	-0.62
641.118	17.38
641.134	15.38
641.151	2.38
641.168	-4.62
641.185	-6.62
641.201	24.38
641.218	20.38
641.235	6.38
641.252	4.38
641.268	0.38
641.285	1.38
641.302	4.38
641.318	-2.62
641.335	2.38
641.352	-8.62
641.368	-6.62
641.385	5.38
641.402	3.38
641.419	-0.62
641.435	26.38
641.452	32.38
641.469	1.38
641.485	-4.62
641.502	6.38
641.519	3.38
641.535	0.38
641.552	23.38
641.569	22.38
641.585	3.38
641.602	7.38
641.619	0.38
641.635	-11.62
641.652	-10.62
641.669	2.38
641.685	7.38
641.702	14.38
641.719	12.38
641.735	-0.62
641.752	-0.62
641.769	5.38
641.785	7.38
641.802	0.38
641.818	8.38
641.835	11.38
641.852	7.38
641.868	25.38
641.885	11.38
641.902	-4.62
641.918	-13.62
641.935	5.38
641.951	7.38
641.968	-16.62
641.985	-18.62
642.001	-10.62
642.018	-6.62
642.034	13.38
642.051	1.38
642.068	-13.62
642.084	4.38
642.101	12.38
642.117	0.38
642.134	4.38
642.151	6.38
642.167	2.38
642.184	0.38
642.2	10.38
642.217	19.38
642.233	26.38
642.25	24.38
642.267	29.38
642.283	23.38
642.3	9.38
642.316	-5.62
642.333	-2.62
642.349	1.38
642.366	-15.62
642.382	-14.62
642.399	67.38
642.416	148.38
642.432	13.38
642.449	-24.62
642.465	0.38
642.482	1.38
642.498	-17.62
642.515	-2.62
642.531	8.38
642.548	2.38
642.564	9.38
642.581	16.38
642.597	-1.62
642.614	4.38
642.63	19.38
642.647	1.38
642.663	23.38
642.68	5.38
642.696	-1.62
642.713	-0.62
642.729	19.38
642.746	10.38
642.762	1.38
642.779	0.38
642.795	4.38
642.812	-1.62
642.828	-10.62
642.845	-5.62
642.861	6.38
642.878	-4.62
642.894	12.38
642.911	33.38
642.927	-11.62
642.944	-2.62
642.96	24.38
642.977	11.38
642.993	9.38
643.01	-4.62
643.026	-11.62
643.042	-8.62
643.059	-2.62
643.075	-5.62
643.092	-12.62
643.108	-14.62
643.125	-9.62
643.141	-9.62
643.158	1.38
643.174	4.38
643.19	29.38
643.207	29.38
643.223	13.38
643.24	0.38
643.256	10.38
643.272	14.38
643.289	-6.62
643.305	-6.62
643.322	-0.62
643.338	11.38
643.355	1.38
643.371	9.38
643.387	-0.62
643.404	-14.62
643.42	-17.62
643.437	7.38
643.453	24.38
643.469	-5.62
643.486	3.38
643.502	5.38
643.518	13.38
643.535	-2.62
643.551	20.38
643.568	-1.62
643.584	3.38
643.6	7.38
643.617	8.38
643.633	18.38
643.649	7.38
643.666	8.38
643.682	-6.62
643.698	-8.62
643.715	-6.62
643.731	-4.62
643.748	-0.62
643.764	9.38
643.78	-3.62
643.797	5.38
643.813	20.38
643.829	14.38
643.846	15.38
643.862	23.38
643.878	23.38
643.895	1.38
643.911	10.38
643.927	7.38
643.943	-3.62
643.96	-12.62
643.976	-18.62
643.992	-7.62
644.009	15.38
644.025	2.38
644.041	2.38
644.058	5.38
644.074	-7.62
644.09	2.38
644.106	20.38
644.123	6.38
644.139	5.38
644.155	1.38
644.172	4.38
644.188	24.38
644.204	9.38
644.22	-0.62
644.237	2.38
644.253	0.38
644.269	-6.62
644.286	-5.62
644.302	-5.62
644.318	-0.62
644.334	0.38
644.351	12.38
644.367	-12.62
644.383	-9.62
644.399	-10.62
644.416	7.38
644.432	5.38
644.448	-11.62
644.464	-0.62
644.481	9.38
644.497	3.38
644.513	9.38
644.529	11.38
644.545	9.38
644.562	-5.62
644.578	-2.62
644.594	0.38
644.61	5.38
644.627	12.38
644.643	1.38
644.659	3.38
644.675	-11.62
644.691	-10.62
644.708	-2.62
644.724	5.38
644.74	-17.62
644.756	-5.62
644.772	-3.62
644.789	3.38
644.805	9.38
644.821	0.38
644.837	6.38
644.853	-3.62
644.869	-8.62
644.886	4.38
644.902	13.38
644.918	12.38
644.934	8.38
644.95	16.38
644.966	-0.62
644.983	0.38
644.999	9.38
645.015	-0.62
645.031	2.38
645.047	24.38
645.063	6.38
645.079	25.38
645.096	70.38
645.112	24.38
645.128	15.38
645.144	-3.62
645.16	-2.62
645.176	16.38
645.192	9.38
645.209	21.38
645.225	17.38
645.241	1.38
645.257	29.38
645.273	13.38
645.289	11.38
645.305	3.38
645.321	2.38
645.337	7.38
645.354	1.38
645.37	-4.62
645.386	1.38
645.402	7.38
645.418	-3.62
645.434	-14.62
645.45	-0.62
645.466	26.38
645.482	4.38
645.498	6.38
645.514	-13.62
645.531	0.38
645.547	-1.62
645.563	12.38
645.579	-8.62
645.595	7.38
645.611	3.38
645.627	7.38
645.643	18.38
645.659	16.38
645.675	14.38
645.691	3.38
645.707	0.38
645.723	-2.62
645.739	-3.62
645.755	13.38
645.771	-17.62
645.787	-8.62
645.803	19.38
645.819	27.38
645.835	3.38
645.852	36.38
645.868	11.38
645.884	-1.62
645.9	10.38
645.916	19.38
645.932	3.38
645.948	5.38
645.964	9.38
645.98	13.38
645.996	12.38
646.012	22.38
646.028	18.38
646.044	-7.62
646.06	3.38
646.076	-2.62
646.092	0.38
646.108	5.38
646.124	2.38
646.14	-2.62
646.156	-15.62
646.172	19.38
646.188	21.38
646.203	1.38
646.219	-1.62
646.235	12.38
646.251	24.38
646.267	4.38
646.283	10.38
646.299	0.38
646.315	4.38
646.331	7.38
646.347	11.38
646.363	1.38
646.379	1.38
646.395	-18.62
646.411	1.38
646.427	4.38
646.443	-8.62
646.459	-17.62
646.475	2.38
646.491	2.38
646.506	-6.62
646.522	-12.62
646.538	7.38
646.554	0.38
646.57	-2.62
646.586	0.38
646.602	17.38
646.618	0.38
646.634	4.38
646.65	7.38
646.666	-5.62
646.682	-10.62
646.697	5.38
646.713	-4.62
646.729	-15.62
646.745	2.38
646.761	1.38
646.777	0.38
646.793	7.38
646.809	15.38
646.824	0.38
646.84	5.38
646.856	-5.62
646.872	-2.62
646.888	4.38
646.904	-10.62
646.92	0.38
646.936	2.38
646.951	5.38
646.967	6.38
646.983	16.38
646.999	6.38
647.015	15.38
647.031	15.38
647.047	-6.62
647.062	-4.62
647.078	-7.62
647.094	-5.62
647.11	7.38
647.126	-8.62
647.142	6.38
647.157	9.38
647.173	8.38
647.189	-16.62
647.205	-17.62
647.221	-10.62
647.236	-4.62
647.252	-7.62
647.268	-5.62
647.284	8.38
647.3	14.38
647.315	23.38
647.331	5.38
647.347	19.38
647.363	10.38
647.379	21.38
647.394	4.38
647.41	-11.62
647.426	-1.62
647.442	6.38
647.458	12.38
647.473	2.38
647.489	-0.62
647.505	6.38
647.521	2.38
647.536	-4.62
647.552	-7.62
647.568	-10.62
647.584	0.38
647.599	-3.62
647.615	-3.62
647.631	4.38
647.647	8.38
647.662	5.38
647.678	-7.62
647.694	-10.62
647.71	-19.62
647.725	-18.62
647.741	-13.62
647.757	-17.62
647.773	22.38
647.788	17.38
647.804	-9.62
647.82	-9.62
647.835	4.38
647.851	5.38
647.867	1.38
647.883	4.38
647.898	-2.62
647.914	17.38
647.93	18.38
647.945	4.38
647.961	16.38
647.977	13.38
647.993	11.38
648.008	16.38
648.024	5.38
648.04	2.38
648.055	-4.62
648.071	3.38
648.087	1.38
648.102	-11.62
648.118	-17.62
648.134	-5.62
648.149	-8.62
648.165	-6.62
648.181	-4.62
648.196	-3.62
648.212	6.38
648.228	-8.62
648.243	14.38
648.259	9.38
648.275	9.38
648.29	4.38
648.306	11.38
648.322	10.38
648.337	-13.62
648.353	3.38
648.368	27.38
648.384	69.38
648.4	1.38
648.415	-10.62
648.431	-2.62
648.447	5.38
648.462	13.38
648.478	3.38
648.493	-4.62
648.509	8.38
648.525	13.38
648.54	-10.62
648.556	-0.62
648.572	4.38
648.587	4.38
648.603	8.38
648.618	3.38
648.634	8.38
648.65	7.38
648.665	-0.62
648.681	-10.62
648.696	-5.62
648.712	3.38
648.727	22.38
648.743	32.38
648.759	34.38
648.774	11.38
648.79	-10.62
648.805	-17.62
648.821	-1.62
648.836	3.38
648.852	-7.62
648.868	-3.62
648.883	7.38
648.899	2.38
648.914	-7.62
648.93	-5.62
648.945	1.38
648.961	21.38
648.976	7.38
648.992	-7.62
649.007	4.38
649.023	-10.62
649.039	12.38
649.054	-6.62
649.07	-1.62
649.085	-9.62
649.101	-5.62
649.116	-14.62
649.132	0.38
649.147	-3.62
649.163	-8.62
649.178	-18.62
649.194	-15.62
649.209	17.38
649.225	0.38
649.24	7.38
649.256	21.38
649.271	12.38
649.287	3.38
649.302	-13.62
649.318	1.38
649.333	-3.62
649.349	-2.62
649.364	2.38
649.38	21.38
649.395	17.38
649.41	3.38
649.426	3.38
649.441	-2.62
649.457	20.38
649.472	-10.62
649.488	-2.62
649.503	4.38
649.519	3.38
649.534	0.38
649.55	21.38
649.565	22.38
649.581	5.38
649.596	-13.62
649.611	-4.62
649.627	6.38
649.642	8.38
649.658	-5.62
649.673	8.38
649.689	17.38
649.704	-0.62
649.719	12.38
649.735	13.38
649.75	17.38
649.766	-6.62
649.781	6.38
649.796	-12.62
649.812	-12.62
649.827	5.38
649.843	-2.62
649.858	-3.62
649.874	7.38
649.889	12.38
649.904	6.38
649.92	21.38
649.935	-1.62
649.95	11.38
649.966	-3.62
649.981	4.38
649.997	23.38
650.012	-4.62
650.027	-14.62
650.043	-5.62
650.058	-9.62
650.073	-3.62
650.089	9.38
650.104	9.38
650.12	-7.62
650.135	-3.62
650.15	-0.62
650.166	-1.62
650.181	4.38
650.196	13.38
650.212	26.38
650.227	4.38
650.242	-8.62
650.258	9.38
650.273	13.38
650.288	10.38
650.304	10.38
650.319	-4.62
650.334	-19.62
650.35	-6.62
650.365	26.38
650.38	7.38
650.396	-20.62
650.411	-3.62
650.426	-0.62
650.441	-2.62
650.457	4.38
650.472	6.38
650.487	19.38
650.503	-10.62
650.518	-16.62
650.533	-2.62
650.549	0.38
650.564	18.38
650.579	19.38
650.594	8.38
650.61	1.38
650.625	-5.62
650.64	-2.62
650.656	-13.62
650.671	-13.62
650.686	6.38
650.701	28.38
650.717	8.38
650.732	11.38
650.747	5.38
650.762	4.38
650.778	0.38
650.793	0.38
650.808	-8.62
650.823	-5.62
650.839	8.38
650.854	4.38
650.869	14.38
650.884	24.38
650.9	5.38
650.915	4.38
650.93	-2.62
650.945	-6.62
650.96	2.38
650.976	12.38
650.991	-8.62
651.006	-6.62
651.021	12.38
651.037	16.38
651.052	1.38
651.067	-12.62
651.082	7.38
651.097	-15.62
651.113	-19.62
651.128	-0.62
651.143	12.38
651.158	5.38
651.173	-6.62
651.189	11.38
651.204	7.38
651.219	-6.62
651.234	-8.62
651.249	-0.62
651.264	4.38
651.28	1.38
651.295	-17.62
651.31	20.38
651.325	-23.62
651.34	-14.62
651.355	3.38
651.371	6.38
651.386	-7.62
651.401	-4.62
651.416	0.38
651.431	-10.62
651.446	-15.62
651.461	-8.62
651.477	-4.62
651.492	15.38
651.507	2.38
651.522	14.38
651.537	10.38
651.552	-4.62
651.567	-3.62
651.583	8.38
651.598	14.38
651.613	1.38
651.628	-3.62
651.643	-2.62
651.658	-7.62
651.673	-14.62
651.688	-20.62
651.703	-8.62
651.719	3.38
651.734	23.38
651.749	-7.62
651.764	-7.62
651.779	-1.62
651.794	-4.62
651.809	-15.62
651.824	7.38
651.839	1.38
651.854	9.38
651.869	12.38
651.884	22.38
651.9	0.38
651.915	-16.62
651.93	13.38
651.945	31.38
651.96	6.38
651.975	0.38
651.99	9.38
652.005	5.38
652.02	-0.62
